TempA(K)	Current(A)	Voltage(V)	R(ohm)
17.151000	1.000000E-6	2.500000E-11	0.000025
17.132000	1.000000E-6	-8.422000E-8	-0.084220
17.096000	1.000000E-6	2.529800E-7	0.252980
17.019000	1.000000E-6	2.107300E-7	0.210730
16.944000	1.000000E-6	5.058250E-7	0.505825
16.850000	1.000000E-6	-1.000000E-11	-0.000010
16.751000	1.000000E-6	8.434500E-8	0.084345
16.619000	1.000000E-6	-6.500000E-11	-0.000065
16.524000	1.000000E-6	5.000000E-12	0.000005
16.392000	1.000000E-6	5.902300E-7	0.590230
16.272000	1.000000E-6	2.107600E-7	0.210760
16.144000	1.000000E-6	-2.950550E-7	-0.295055
16.000000	1.000000E-6	3.371500E-7	0.337150
15.895000	1.000000E-6	-3.372050E-7	-0.337205
15.759000	1.000000E-6	-8.426000E-8	-0.084260
15.652000	1.000000E-6	5.901350E-7	0.590135
15.475000	1.000000E-6	9.695450E-7	0.969545
15.394000	1.000000E-6	8.008200E-7	0.800820
15.220000	1.000000E-6	9.694700E-7	0.969470
15.124000	1.000000E-6	1.264515E-6	1.264515
14.967000	1.000000E-6	1.095930E-6	1.095930
14.841000	1.000000E-6	1.264540E-6	1.264540
14.708000	1.000000E-6	1.643945E-6	1.643945
14.552000	1.000000E-6	1.180265E-6	1.180265
TempA(K)	Current(A)	Voltage(V)	R(ohm)
6.063000	1.000000E-4	1.649788E-4	1.649788
5.989000	1.000000E-4	1.648101E-4	1.648101
5.973000	1.000000E-4	1.648103E-4	1.648103
5.990000	1.000000E-4	1.645574E-4	1.645574
5.894000	1.000000E-4	1.647681E-4	1.647681
5.991000	1.000000E-4	1.647681E-4	1.647681
5.855000	1.000000E-4	1.649788E-4	1.649788
5.982000	1.000000E-4	1.649368E-4	1.649367
5.812000	1.000000E-4	1.649366E-4	1.649366
5.949000	1.000000E-4	1.648524E-4	1.648524
5.796000	1.000000E-4	1.636299E-4	1.636299
5.883000	1.000000E-4	1.644731E-4	1.644731
5.793000	1.000000E-4	1.646838E-4	1.646838
5.788000	1.000000E-4	1.648945E-4	1.648945
5.795000	1.000000E-4	1.643466E-4	1.643466
5.706000	1.000000E-4	1.647259E-4	1.647259
5.801000	1.000000E-4	1.642200E-4	1.642200
5.670000	1.000000E-4	1.643044E-4	1.643044
5.799000	1.000000E-4	1.645573E-4	1.645573
5.622000	1.000000E-4	1.650631E-4	1.650630
5.771000	1.000000E-4	1.649366E-4	1.649366
5.606000	1.000000E-4	1.643887E-4	1.643887
TempA(K)	Current(A)	Voltage(V)	R(ohm)
5.219000	1.000000E-4	4.636950E-7	0.004637
5.374000	1.000000E-4	-1.348950E-6	-0.013489
5.199000	1.000000E-4	-1.264100E-7	-0.001264
5.361000	1.000000E-4	5.480400E-7	0.005480
5.199000	1.000000E-4	-2.950100E-7	-0.002950
5.306000	1.000000E-4	8.426000E-8	0.000843
5.206000	1.000000E-4	3.794000E-7	0.003794
5.213000	1.000000E-4	4.215100E-7	0.004215
5.225000	1.000000E-4	-4.213000E-8	-0.000421
5.133000	1.000000E-4	6.745150E-7	0.006745
5.193000	1.000000E-4	4.210000E-8	0.000421
TempA(K)	Current(A)	Voltage(V)	R(ohm)
4.671000	1.000000E-4	1.643887E-4	1.643887
4.589000	1.000000E-4	1.650210E-4	1.650210
4.701000	1.000000E-4	1.654847E-4	1.654847
4.565000	1.000000E-4	1.648524E-4	1.648524
4.719000	1.000000E-4	1.648524E-4	1.648524
4.540000	1.000000E-4	1.648524E-4	1.648524
4.720000	1.000000E-4	1.653161E-4	1.653161
4.544000	1.000000E-4	1.653583E-4	1.653582
4.683000	1.000000E-4	1.650632E-4	1.650632
4.565000	1.000000E-4	1.639253E-4	1.639253
4.601000	1.000000E-4	1.647680E-4	1.647680
4.602000	1.000000E-4	1.649368E-4	1.649367
4.533000	1.000000E-4	1.642623E-4	1.642623
4.651000	1.000000E-4	1.647681E-4	1.647681
4.529000	1.000000E-4	1.653581E-4	1.653581
4.693000	1.000000E-4	1.654425E-4	1.654424
4.509000	1.000000E-4	1.648101E-4	1.648101
4.703000	1.000000E-4	1.647681E-4	1.647681
4.516000	1.000000E-4	1.648945E-4	1.648945
4.668000	1.000000E-4	1.638830E-4	1.638830
4.540000	1.000000E-4	1.643044E-4	1.643044
4.589000	1.000000E-4	1.648102E-4	1.648102
4.580000	1.000000E-4	1.646837E-4	1.646837
4.592000	1.000000E-4	1.646416E-4	1.646416
4.635000	1.000000E-4	1.650210E-4	1.650210
4.524000	1.000000E-4	1.646416E-4	1.646416
4.683000	1.000000E-4	1.652317E-4	1.652316
4.502000	1.000000E-4	1.649366E-4	1.649366
4.703000	1.000000E-4	1.649366E-4	1.649366
4.514000	1.000000E-4	1.647681E-4	1.647681
4.674000	1.000000E-4	1.644730E-4	1.644729
4.539000	1.000000E-4	1.643045E-4	1.643045
4.602000	1.000000E-4	1.651896E-4	1.651896
4.581000	1.000000E-4	1.648102E-4	1.648102
4.606000	1.000000E-4	1.648523E-4	1.648523
4.639000	1.000000E-4	1.647682E-4	1.647682
4.540000	1.000000E-4	1.651474E-4	1.651474
4.694000	1.000000E-4	1.641357E-4	1.641357
4.519000	1.000000E-4	1.650632E-4	1.650632
4.713000	1.000000E-4	1.648102E-4	1.648102
4.528000	1.000000E-4	1.643887E-4	1.643887
4.698000	1.000000E-4	1.646837E-4	1.646837
4.558000	1.000000E-4	1.648103E-4	1.648103
4.631000	1.000000E-4	1.659484E-4	1.659483
4.600000	1.000000E-4	1.645996E-4	1.645996
4.637000	1.000000E-4	1.650209E-4	1.650209
4.661000	1.000000E-4	1.651053E-4	1.651053
4.571000	1.000000E-4	1.651475E-4	1.651474
4.713000	1.000000E-4	1.644730E-4	1.644729
4.548000	1.000000E-4	1.653161E-4	1.653161
4.733000	1.000000E-4	1.646837E-4	1.646837
4.560000	1.000000E-4	1.655269E-4	1.655269
4.722000	1.000000E-4	1.641780E-4	1.641780
4.588000	1.000000E-4	1.647680E-4	1.647680
4.670000	1.000000E-4	1.652317E-4	1.652317
4.632000	1.000000E-4	1.647682E-4	1.647682
4.602000	1.000000E-4	1.640936E-4	1.640935
4.693000	1.000000E-4	1.648524E-4	1.648524
4.612000	1.000000E-4	1.650632E-4	1.650632
4.736000	1.000000E-4	1.658218E-4	1.658218
4.588000	1.000000E-4	1.648945E-4	1.648945
4.760000	1.000000E-4	1.653160E-4	1.653160
4.602000	1.000000E-4	1.650631E-4	1.650631
4.751000	1.000000E-4	1.647258E-4	1.647258
4.630000	1.000000E-4	1.645152E-4	1.645152
4.712000	1.000000E-4	1.656533E-4	1.656532
4.674000	1.000000E-4	1.647258E-4	1.647258
4.719000	1.000000E-4	1.652737E-4	1.652737
4.724000	1.000000E-4	1.643888E-4	1.643888
4.663000	1.000000E-4	1.649368E-4	1.649367
4.765000	1.000000E-4	1.650632E-4	1.650632
4.640000	1.000000E-4	1.641780E-4	1.641780
4.791000	1.000000E-4	1.651476E-4	1.651476
4.654000	1.000000E-4	1.643044E-4	1.643044
4.785000	1.000000E-4	1.649366E-4	1.649366
4.684000	1.000000E-4	1.644731E-4	1.644731
4.749000	1.000000E-4	1.646416E-4	1.646416
4.718000	1.000000E-4	1.645151E-4	1.645151
4.708000	1.000000E-4	1.650632E-4	1.650632
4.758000	1.000000E-4	1.652738E-4	1.652738
4.717000	1.000000E-4	1.649365E-4	1.649365
4.800000	1.000000E-4	1.646417E-4	1.646417
4.700000	1.000000E-4	1.638828E-4	1.638828
4.829000	1.000000E-4	1.650209E-4	1.650209
4.710000	1.000000E-4	1.646839E-4	1.646839
4.827000	1.000000E-4	1.652738E-4	1.652738
4.730000	1.000000E-4	1.640936E-4	1.640935
4.794000	1.000000E-4	1.642200E-4	1.642200
4.759000	1.000000E-4	1.649365E-4	1.649365
4.803000	1.000000E-4	1.658638E-4	1.658638
4.799000	1.000000E-4	1.650631E-4	1.650631
4.763000	1.000000E-4	1.654003E-4	1.654003
4.843000	1.000000E-4	1.648524E-4	1.648524
4.746000	1.000000E-4	1.646416E-4	1.646416
4.873000	1.000000E-4	1.650209E-4	1.650209
4.756000	1.000000E-4	1.653161E-4	1.653161
4.874000	1.000000E-4	1.648101E-4	1.648101
4.777000	1.000000E-4	1.654845E-4	1.654845
4.842000	1.000000E-4	1.644308E-4	1.644308
4.805000	1.000000E-4	1.645152E-4	1.645151
4.802000	1.000000E-4	1.645994E-4	1.645994
4.846000	1.000000E-4	1.638407E-4	1.638407
4.813000	1.000000E-4	1.648944E-4	1.648944
4.890000	1.000000E-4	1.641779E-4	1.641779
4.796000	1.000000E-4	1.654004E-4	1.654004
4.931000	1.000000E-4	1.648944E-4	1.648944
4.806000	1.000000E-4	1.645994E-4	1.645994
4.934000	1.000000E-4	1.647680E-4	1.647680
4.826000	1.000000E-4	1.643464E-4	1.643464
4.894000	1.000000E-4	1.647680E-4	1.647680
4.854000	1.000000E-4	1.647680E-4	1.647680
4.907000	1.000000E-4	1.646415E-4	1.646415
4.894000	1.000000E-4	1.647257E-4	1.647257
4.864000	1.000000E-4	1.637563E-4	1.637563
4.955000	1.000000E-4	1.642200E-4	1.642200
4.847000	1.000000E-4	1.649786E-4	1.649786
5.002000	1.000000E-4	1.648524E-4	1.648524
4.855000	1.000000E-4	1.644729E-4	1.644729
5.008000	1.000000E-4	1.643044E-4	1.643043
4.874000	1.000000E-4	1.653581E-4	1.653581
5.023000	1.000000E-4	1.649787E-4	1.649787
4.904000	1.000000E-4	1.642200E-4	1.642200
4.983000	1.000000E-4	1.640936E-4	1.640936
4.962000	1.000000E-4	1.654002E-4	1.654001
4.923000	1.000000E-4	1.641779E-4	1.641779
5.025000	1.000000E-4	1.644305E-4	1.644305
4.897000	1.000000E-4	1.645150E-4	1.645150
5.073000	1.000000E-4	1.646415E-4	1.646415
4.907000	1.000000E-4	1.645993E-4	1.645992
5.079000	1.000000E-4	1.645572E-4	1.645571
4.935000	1.000000E-4	1.649786E-4	1.649785
5.093000	1.000000E-4	1.646415E-4	1.646414
4.973000	1.000000E-4	1.644308E-4	1.644308
5.054000	1.000000E-4	1.649365E-4	1.649365
5.030000	1.000000E-4	1.642621E-4	1.642621
4.996000	1.000000E-4	1.652317E-4	1.652317
5.092000	1.000000E-4	1.650629E-4	1.650629
4.966000	1.000000E-4	1.651052E-4	1.651052
5.139000	1.000000E-4	1.641779E-4	1.641779
4.975000	1.000000E-4	1.650629E-4	1.650629
5.149000	1.000000E-4	1.641777E-4	1.641777
5.002000	1.000000E-4	1.646838E-4	1.646837
5.162000	1.000000E-4	1.643043E-4	1.643043
5.041000	1.000000E-4	1.645150E-4	1.645150
5.125000	1.000000E-4	1.645993E-4	1.645993
5.095000	1.000000E-4	1.643043E-4	1.643043
5.067000	1.000000E-4	1.644308E-4	1.644308
5.156000	1.000000E-4	1.648523E-4	1.648522
5.036000	1.000000E-4	1.646415E-4	1.646415
5.206000	1.000000E-4	1.645572E-4	1.645572
5.045000	1.000000E-4	1.648943E-4	1.648943
5.222000	1.000000E-4	1.652737E-4	1.652737
5.070000	1.000000E-4	1.648523E-4	1.648523
5.237000	1.000000E-4	1.645150E-4	1.645150
5.107000	1.000000E-4	1.652316E-4	1.652316
5.194000	1.000000E-4	1.641777E-4	1.641777
5.160000	1.000000E-4	1.648945E-4	1.648945
5.137000	1.000000E-4	1.648523E-4	1.648522
5.225000	1.000000E-4	1.643886E-4	1.643886
5.104000	1.000000E-4	1.647259E-4	1.647259
5.287000	1.000000E-4	1.649366E-4	1.649366
5.109000	1.000000E-4	1.645151E-4	1.645151
5.304000	1.000000E-4	1.643464E-4	1.643464
5.135000	1.000000E-4	1.641357E-4	1.641357
5.321000	1.000000E-4	1.645572E-4	1.645572
5.170000	1.000000E-4	1.645572E-4	1.645571
5.277000	1.000000E-4	1.645150E-4	1.645150
5.227000	1.000000E-4	1.643886E-4	1.643886
5.204000	1.000000E-4	1.653581E-4	1.653581
5.304000	1.000000E-4	1.649365E-4	1.649365
5.167000	1.000000E-4	1.643044E-4	1.643043
5.367000	1.000000E-4	1.642621E-4	1.642621
5.171000	1.000000E-4	1.648523E-4	1.648523
5.383000	1.000000E-4	1.639671E-4	1.639671
5.196000	1.000000E-4	1.646836E-4	1.646836
5.401000	1.000000E-4	1.646836E-4	1.646836
5.239000	1.000000E-4	1.640512E-4	1.640512
5.360000	1.000000E-4	1.650209E-4	1.650209
5.304000	1.000000E-4	1.645572E-4	1.645572
5.288000	1.000000E-4	1.643464E-4	1.643464
5.378000	1.000000E-4	1.648522E-4	1.648522
5.239000	1.000000E-4	1.651895E-4	1.651895
5.440000	1.000000E-4	1.653581E-4	1.653581
5.241000	1.000000E-4	1.646416E-4	1.646416
5.454000	1.000000E-4	1.642200E-4	1.642200
5.268000	1.000000E-4	1.639670E-4	1.639670
5.474000	1.000000E-4	1.640936E-4	1.640935
5.313000	1.000000E-4	1.654423E-4	1.654423
5.438000	1.000000E-4	1.648101E-4	1.648101
5.374000	1.000000E-4	1.646415E-4	1.646414
5.366000	1.000000E-4	1.643886E-4	1.643886
5.447000	1.000000E-4	1.647259E-4	1.647259
5.315000	1.000000E-4	1.643464E-4	1.643464
5.462000	1.000000E-4	1.641779E-4	1.641779
5.314000	1.000000E-4	1.645572E-4	1.645571
5.523000	1.000000E-4	1.646415E-4	1.646415
5.339000	1.000000E-4	1.651894E-4	1.651894
5.545000	1.000000E-4	1.641356E-4	1.641356
5.381000	1.000000E-4	1.640092E-4	1.640092
5.511000	1.000000E-4	1.643885E-4	1.643885
5.442000	1.000000E-4	1.638829E-4	1.638829
5.438000	1.000000E-4	1.645994E-4	1.645994
5.513000	1.000000E-4	1.640936E-4	1.640936
5.386000	1.000000E-4	1.640092E-4	1.640092
5.527000	1.000000E-4	1.645574E-4	1.645574
5.384000	1.000000E-4	1.642620E-4	1.642620
5.589000	1.000000E-4	1.647681E-4	1.647681
5.411000	1.000000E-4	1.639248E-4	1.639248
5.612000	1.000000E-4	1.643886E-4	1.643886
5.452000	1.000000E-4	1.643464E-4	1.643464
5.583000	1.000000E-4	1.642621E-4	1.642621
5.511000	1.000000E-4	1.643043E-4	1.643043
5.515000	1.000000E-4	1.648521E-4	1.648521
5.524000	1.000000E-4	1.651473E-4	1.651473
5.461000	1.000000E-4	1.642621E-4	1.642621
5.594000	1.000000E-4	1.640935E-4	1.640935
5.456000	1.000000E-4	1.647680E-4	1.647680
5.655000	1.000000E-4	1.644728E-4	1.644728
5.482000	1.000000E-4	1.642200E-4	1.642200
5.680000	1.000000E-4	1.643886E-4	1.643886
5.524000	1.000000E-4	1.645572E-4	1.645571
5.654000	1.000000E-4	1.642622E-4	1.642621
5.580000	1.000000E-4	1.645572E-4	1.645572
5.591000	1.000000E-4	1.649787E-4	1.649787
5.593000	1.000000E-4	1.645150E-4	1.645150
5.536000	1.000000E-4	1.640514E-4	1.640514
5.659000	1.000000E-4	1.652315E-4	1.652315
5.530000	1.000000E-4	1.642200E-4	1.642200
5.719000	1.000000E-4	1.644308E-4	1.644308
5.554000	1.000000E-4	1.656952E-4	1.656952
5.745000	1.000000E-4	1.641356E-4	1.641356
5.592000	1.000000E-4	1.642621E-4	1.642621
5.722000	1.000000E-4	1.647680E-4	1.647680
5.646000	1.000000E-4	1.642621E-4	1.642621
5.661000	1.000000E-4	1.636720E-4	1.636720
5.659000	1.000000E-4	1.643041E-4	1.643041
5.609000	1.000000E-4	1.641778E-4	1.641778
5.723000	1.000000E-4	1.655266E-4	1.655266
5.600000	1.000000E-4	1.641778E-4	1.641778
5.784000	1.000000E-4	1.649787E-4	1.649787
5.622000	1.000000E-4	1.645572E-4	1.645572
5.811000	1.000000E-4	1.645150E-4	1.645150
5.660000	1.000000E-4	1.648522E-4	1.648522
5.791000	1.000000E-4	1.649787E-4	1.649787
5.711000	1.000000E-4	1.640936E-4	1.640935
5.731000	1.000000E-4	1.645993E-4	1.645993
5.723000	1.000000E-4	1.637562E-4	1.637562
5.678000	1.000000E-4	1.649366E-4	1.649366
5.787000	1.000000E-4	1.647257E-4	1.647257
5.666000	1.000000E-4	1.641778E-4	1.641778
5.846000	1.000000E-4	1.641777E-4	1.641777
5.687000	1.000000E-4	1.636718E-4	1.636718
5.874000	1.000000E-4	1.643464E-4	1.643464
5.726000	1.000000E-4	1.639670E-4	1.639670
5.856000	1.000000E-4	1.639249E-4	1.639249
5.774000	1.000000E-4	1.644728E-4	1.644728
5.800000	1.000000E-4	1.640513E-4	1.640513
5.787000	1.000000E-4	1.641779E-4	1.641779
5.747000	1.000000E-4	1.641356E-4	1.641356
5.849000	1.000000E-4	1.645571E-4	1.645571
5.733000	1.000000E-4	1.645149E-4	1.645149
5.907000	1.000000E-4	1.645151E-4	1.645151
5.755000	1.000000E-4	1.643043E-4	1.643043
5.938000	1.000000E-4	1.638827E-4	1.638827
5.790000	1.000000E-4	1.639671E-4	1.639671
5.923000	1.000000E-4	1.637563E-4	1.637563
5.804000	1.000000E-4	1.642200E-4	1.642200
5.870000	1.000000E-4	1.644308E-4	1.644308
5.851000	1.000000E-4	1.642199E-4	1.642199
5.815000	1.000000E-4	1.644728E-4	1.644728
5.910000	1.000000E-4	1.645151E-4	1.645151
5.798000	1.000000E-4	1.645995E-4	1.645995
5.967000	1.000000E-4	1.643887E-4	1.643887
5.821000	1.000000E-4	1.638405E-4	1.638405
6.000000	1.000000E-4	1.650631E-4	1.650630
5.854000	1.000000E-4	1.643464E-4	1.643464
5.988000	1.000000E-4	1.644730E-4	1.644729
5.868000	1.000000E-4	1.643465E-4	1.643465
5.938000	1.000000E-4	1.637563E-4	1.637563
5.913000	1.000000E-4	1.640514E-4	1.640513
5.882000	1.000000E-4	1.647258E-4	1.647258
5.970000	1.000000E-4	1.640515E-4	1.640515
5.865000	1.000000E-4	1.640092E-4	1.640092
6.027000	1.000000E-4	1.644728E-4	1.644728
5.882000	1.000000E-4	1.636719E-4	1.636719
6.059000	1.000000E-4	1.635032E-4	1.635032
5.917000	1.000000E-4	1.643464E-4	1.643464
6.051000	1.000000E-4	1.638407E-4	1.638407
5.931000	1.000000E-4	1.640515E-4	1.640515
6.005000	1.000000E-4	1.639250E-4	1.639250
5.974000	1.000000E-4	1.638828E-4	1.638828
5.950000	1.000000E-4	1.638827E-4	1.638827
6.030000	1.000000E-4	1.639249E-4	1.639249
5.930000	1.000000E-4	1.635878E-4	1.635878
6.084000	1.000000E-4	1.637984E-4	1.637984
5.946000	1.000000E-4	1.642200E-4	1.642200
6.119000	1.000000E-4	1.645572E-4	1.645571
5.960000	1.000000E-4	1.638827E-4	1.638827
6.113000	1.000000E-4	1.638827E-4	1.638827
5.994000	1.000000E-4	1.645572E-4	1.645571
6.071000	1.000000E-4	1.640937E-4	1.640937
6.036000	1.000000E-4	1.638407E-4	1.638407
6.017000	1.000000E-4	1.639250E-4	1.639250
6.087000	1.000000E-4	1.637985E-4	1.637984
5.993000	1.000000E-4	1.643043E-4	1.643043
6.141000	1.000000E-4	1.643464E-4	1.643464
6.012000	1.000000E-4	1.637142E-4	1.637142
6.177000	1.000000E-4	1.642200E-4	1.642200
6.022000	1.000000E-4	1.638827E-4	1.638827
6.176000	1.000000E-4	1.642622E-4	1.642621
6.054000	1.000000E-4	1.640935E-4	1.640935
6.136000	1.000000E-4	1.640514E-4	1.640513
6.094000	1.000000E-4	1.650630E-4	1.650630
6.082000	1.000000E-4	1.637984E-4	1.637984
6.144000	1.000000E-4	1.640935E-4	1.640935
6.057000	1.000000E-4	1.630397E-4	1.630397
6.198000	1.000000E-4	1.643043E-4	1.643043
6.071000	1.000000E-4	1.637984E-4	1.637984
6.235000	1.000000E-4	1.632503E-4	1.632503
6.101000	1.000000E-4	1.645572E-4	1.645571
6.237000	1.000000E-4	1.640934E-4	1.640934
6.114000	1.000000E-4	1.635033E-4	1.635033
6.201000	1.000000E-4	1.638827E-4	1.638827
6.154000	1.000000E-4	1.644307E-4	1.644307
6.149000	1.000000E-4	1.639671E-4	1.639671
6.203000	1.000000E-4	1.639670E-4	1.639670
6.121000	1.000000E-4	1.644729E-4	1.644729
6.255000	1.000000E-4	1.639249E-4	1.639249
6.133000	1.000000E-4	1.637562E-4	1.637561
6.294000	1.000000E-4	1.645572E-4	1.645571
6.145000	1.000000E-4	1.640935E-4	1.640935
6.298000	1.000000E-4	1.637140E-4	1.637140
6.174000	1.000000E-4	1.632926E-4	1.632926
6.265000	1.000000E-4	1.636299E-4	1.636299
6.213000	1.000000E-4	1.645572E-4	1.645571
6.215000	1.000000E-4	1.643043E-4	1.643043
6.260000	1.000000E-4	1.640935E-4	1.640935
6.184000	1.000000E-4	1.631240E-4	1.631240
6.312000	1.000000E-4	1.639249E-4	1.639249
6.195000	1.000000E-4	1.643043E-4	1.643043
6.352000	1.000000E-4	1.642621E-4	1.642621
6.206000	1.000000E-4	1.638828E-4	1.638828
6.359000	1.000000E-4	1.637563E-4	1.637563
6.236000	1.000000E-4	1.637562E-4	1.637562
6.328000	1.000000E-4	1.640935E-4	1.640935
6.272000	1.000000E-4	1.643042E-4	1.643042
6.278000	1.000000E-4	1.631241E-4	1.631241
6.318000	1.000000E-4	1.635878E-4	1.635878
6.249000	1.000000E-4	1.639670E-4	1.639670
6.368000	1.000000E-4	1.640514E-4	1.640513
6.254000	1.000000E-4	1.639669E-4	1.639669
6.411000	1.000000E-4	1.633769E-4	1.633768
6.267000	1.000000E-4	1.634191E-4	1.634190
6.420000	1.000000E-4	1.637984E-4	1.637984
6.293000	1.000000E-4	1.635455E-4	1.635455
6.390000	1.000000E-4	1.636719E-4	1.636719
6.329000	1.000000E-4	1.645149E-4	1.645149
6.340000	1.000000E-4	1.634190E-4	1.634190
6.372000	1.000000E-4	1.640092E-4	1.640092
6.308000	1.000000E-4	1.637984E-4	1.637984
6.427000	1.000000E-4	1.635456E-4	1.635456
6.312000	1.000000E-4	1.640092E-4	1.640092
6.476000	1.000000E-4	1.642200E-4	1.642200
6.338000	1.000000E-4	1.639671E-4	1.639671
6.490000	1.000000E-4	1.638406E-4	1.638406
6.349000	1.000000E-4	1.636297E-4	1.636297
6.459000	1.000000E-4	1.636719E-4	1.636719
6.384000	1.000000E-4	1.631660E-4	1.631660
6.403000	1.000000E-4	1.638407E-4	1.638407
6.432000	1.000000E-4	1.633348E-4	1.633348
6.368000	1.000000E-4	1.642198E-4	1.642198
6.491000	1.000000E-4	1.640092E-4	1.640092
6.369000	1.000000E-4	1.629131E-4	1.629131
6.540000	1.000000E-4	1.634613E-4	1.634613
6.380000	1.000000E-4	1.635876E-4	1.635876
6.557000	1.000000E-4	1.641356E-4	1.641355
6.405000	1.000000E-4	1.636720E-4	1.636720
6.534000	1.000000E-4	1.633769E-4	1.633769
6.447000	1.000000E-4	1.634191E-4	1.634190
6.476000	1.000000E-4	1.637563E-4	1.637563
6.495000	1.000000E-4	1.632924E-4	1.632924
6.433000	1.000000E-4	1.631662E-4	1.631662
6.552000	1.000000E-4	1.632926E-4	1.632926
6.428000	1.000000E-4	1.642620E-4	1.642620
6.601000	1.000000E-4	1.633768E-4	1.633768
6.441000	1.000000E-4	1.640512E-4	1.640512
6.622000	1.000000E-4	1.640514E-4	1.640514
6.468000	1.000000E-4	1.645993E-4	1.645992
6.600000	1.000000E-4	1.638827E-4	1.638827
6.507000	1.000000E-4	1.634611E-4	1.634611
6.546000	1.000000E-4	1.641356E-4	1.641356
6.554000	1.000000E-4	1.635033E-4	1.635033
6.498000	1.000000E-4	1.634190E-4	1.634190
6.610000	1.000000E-4	1.634191E-4	1.634190
6.491000	1.000000E-4	1.634190E-4	1.634190
6.660000	1.000000E-4	1.640093E-4	1.640093
6.505000	1.000000E-4	1.634191E-4	1.634191
6.682000	1.000000E-4	1.637562E-4	1.637562
6.527000	1.000000E-4	1.636718E-4	1.636718
6.664000	1.000000E-4	1.629975E-4	1.629974
6.567000	1.000000E-4	1.637984E-4	1.637984
6.614000	1.000000E-4	1.638827E-4	1.638827
6.613000	1.000000E-4	1.632503E-4	1.632503
